 int. wave (nm)     cross-section       phi
    1     121.5        0.0000E+00    0.0400
    2     116.7        0.0000E+00    0.0400
    3     117.3        0.0000E+00    0.0400
    4     117.9        0.0000E+00    0.0400
    5     118.7        0.0000E+00    0.0400
    6     119.4        0.0000E+00    0.0400
    7     120.2        0.0000E+00    0.0400
    8     120.8        0.0000E+00    0.0400
    9     121.6        0.0000E+00    0.0400
   10     122.3        0.0000E+00    0.0400
   11     123.1        0.0000E+00    0.0400
   12     123.8        0.0000E+00    0.0400
   13     124.6        0.0000E+00    0.0400
   14     125.4        0.0000E+00    0.0400
   15     126.2        0.0000E+00    0.0400
   16     127.0        0.0000E+00    0.0400
   17     127.8        0.0000E+00    0.0400
   18     128.6        0.0000E+00    0.0400
   19     129.4        0.0000E+00    0.0400
   20     130.3        0.0000E+00    0.0400
   21     131.1        0.0000E+00    0.0400
   22     132.0        0.0000E+00    0.0400
   23     132.9        0.0000E+00    0.0400
   24     133.8        0.0000E+00    0.0400
   25     134.6        0.0000E+00    0.0400
   26     135.6        0.0000E+00    0.0400
   27     136.5        0.0000E+00    0.0400
   28     137.4        0.0000E+00    0.0400
   29     138.4        0.0000E+00    0.0400
   30     139.9        0.0000E+00    0.0400
   31     141.8        0.0000E+00    0.0400
   32     143.9        0.0000E+00    0.0400
   33     145.9        0.0000E+00    0.0400
   34     148.1        0.0000E+00    0.0400
   35     150.4        0.0000E+00    0.0400
   36     152.6        0.0000E+00    0.0400
   37     155.0        0.0000E+00    0.0400
   38     157.4        0.0000E+00    0.0400
   39     160.0        0.0000E+00    0.0400
   40     162.6        0.0000E+00    0.0400
   41     165.3        0.0000E+00    0.0400
   42     168.1        0.0000E+00    0.0400
   43     170.9        0.0000E+00    0.0400
   44     173.1        0.0000E+00    0.0400
   45     174.6        0.0000E+00    0.0400
   46     176.2        0.0000E+00    0.0400
   47     177.8        0.0000E+00    0.0400
   48     179.4        0.0000E+00    0.0400
   49     181.0        0.0000E+00    0.0400
   50     182.7        0.0000E+00    0.0400
   51     184.3        0.0000E+00    0.0400
   52     186.1        0.0000E+00    0.0400
   53     187.8        0.0000E+00    0.0400
   54     189.6        0.0000E+00    0.0400
   55     191.4        0.0000E+00    0.0400
   56     193.2        0.0000E+00    0.0400
   57     195.1        0.0000E+00    0.0400
   58     197.0        0.0000E+00    0.0400
   59     199.0        0.0000E+00    0.0400
   60     201.0        0.0000E+00    0.0400
   61     203.1        0.0000E+00    0.0400
   62     205.1        0.0000E+00    0.0400
   63     207.3        0.0000E+00    0.0400
   64     209.4        0.0000E+00    0.0400
   65     211.6        0.0000E+00    0.0400
   66     213.9        0.0000E+00    0.0400
   67     216.2        0.0000E+00    0.0400
   68     218.6        0.0000E+00    0.0400
   69     221.0        0.0000E+00    0.0400
   70     223.5        0.0000E+00    0.0400
   71     226.0        0.0000E+00    0.0400
   72     228.6        0.0000E+00    0.0400
   73     231.2        0.0000E+00    0.0400
   74     233.9        0.0000E+00    0.0400
   75     236.7        0.0000E+00    0.0400
   76     239.5        0.0000E+00    0.0400
   77     242.4        0.0000E+00    0.0400
   78     245.4        0.0000E+00    0.0400
   79     248.5        0.0000E+00    0.0400
   80     251.6        0.0000E+00    0.0400
   81     254.8        0.0000E+00    0.0400
   82     258.1        0.0000E+00    0.0400
   83     261.4        0.0000E+00    0.0400
   84     264.9        0.0000E+00    0.0400
   85     268.5        0.0000E+00    0.0400
   86     272.1        0.0000E+00    0.0400
   87     275.9        0.0000E+00    0.0400
   88     279.7        0.0000E+00    0.0400
   89     283.7        0.0000E+00    0.0400
   90     287.8        8.8400E-21    0.0400
   91     292.0        1.0100E-20    0.0400
   92     296.3        1.1260E-20    0.0400
   93     300.8        1.2000E-20    0.0400
   94     305.3        1.1880E-20    0.0400
   95     310.0        1.0000E-20    0.0400
   96     315.0        8.1000E-21    0.0400
   97     320.0        5.5000E-21    0.0400
   98     325.0        2.8000E-21    0.0400
   99     330.0        0.0000E+00    0.0400
  100     335.0        0.0000E+00    0.0400
  101     340.0        0.0000E+00    0.0400
  102     345.0        0.0000E+00    0.0400
  103     350.0        0.0000E+00    0.0400
  104     355.0        0.0000E+00    0.0400
  105     360.0        0.0000E+00    0.0400
  106     365.0        0.0000E+00    0.0400
  107     370.0        0.0000E+00    0.0400
  108     375.0        0.0000E+00    0.0400
  109     380.0        0.0000E+00    0.0400
  110     385.0        0.0000E+00    0.0400
  111     390.0        0.0000E+00    0.0400
  112     395.0        0.0000E+00    0.0400
  113     400.0        0.0000E+00    0.0400
  114     405.0        0.0000E+00    0.0400
  115     410.0        0.0000E+00    0.0400
  116     415.0        0.0000E+00    0.0400
  117     420.0        0.0000E+00    0.0400
  118     425.0        0.0000E+00    0.0400
  119     430.0        0.0000E+00    0.0400
  120     435.0        0.0000E+00    0.0400
  121     440.0        0.0000E+00    0.0400
  122     445.0        0.0000E+00    0.0400
  123     450.0        0.0000E+00    0.0400
  124     455.0        0.0000E+00    0.0400
  125     460.0        0.0000E+00    0.0400
  126     465.0        0.0000E+00    0.0400
  127     470.0        0.0000E+00    0.0400
  128     475.0        0.0000E+00    0.0400
  129     480.0        0.0000E+00    0.0400
  130     485.0        0.0000E+00    0.0400
  131     490.0        0.0000E+00    0.0400
  132     495.0        0.0000E+00    0.0400
  133     500.0        0.0000E+00    0.0400
  134     505.0        0.0000E+00    0.0400
  135     510.0        0.0000E+00    0.0400
  136     515.0        0.0000E+00    0.0400
  137     520.0        0.0000E+00    0.0400
  138     525.0        0.0000E+00    0.0400
  139     530.0        0.0000E+00    0.0400
  140     535.0        0.0000E+00    0.0400
  141     540.0        0.0000E+00    0.0400
  142     545.0        0.0000E+00    0.0400
  143     550.0        0.0000E+00    0.0400
  144     555.0        0.0000E+00    0.0400
  145     560.0        0.0000E+00    0.0400
  146     565.0        0.0000E+00    0.0400
  147     570.0        0.0000E+00    0.0400
  148     575.0        0.0000E+00    0.0400
  149     580.0        0.0000E+00    0.0400
  150     585.0        0.0000E+00    0.0400
  151     590.0        0.0000E+00    0.0400
  152     595.0        0.0000E+00    0.0400
  153     600.0        0.0000E+00    0.0400
  154     605.0        0.0000E+00    0.0400
  155     610.0        0.0000E+00    0.0400
  156     615.0        0.0000E+00    0.0400
  157     620.0        0.0000E+00    0.0400
  158     625.0        0.0000E+00    0.0400
  159     630.0        0.0000E+00    0.0400
  160     635.0        0.0000E+00    0.0400
  161     640.0        0.0000E+00    0.0400
  162     645.0        0.0000E+00    0.0400
  163     650.0        0.0000E+00    0.0400
  164     655.0        0.0000E+00    0.0400
  165     660.0        0.0000E+00    0.0400
  166     665.0        0.0000E+00    0.0400
  167     670.0        0.0000E+00    0.0400
  168     675.0        0.0000E+00    0.0400
  169     680.0        0.0000E+00    0.0400
  170     685.0        0.0000E+00    0.0400
  171     690.0        0.0000E+00    0.0400
  172     695.0        0.0000E+00    0.0400
  173     700.0        0.0000E+00    0.0400
  174     705.0        0.0000E+00    0.0400
  175     710.0        0.0000E+00    0.0400
  176     715.0        0.0000E+00    0.0400
  177     720.0        0.0000E+00    0.0400
  178     725.0        0.0000E+00    0.0400
  179     730.0        0.0000E+00    0.0400
  180     735.0        0.0000E+00    0.0400
  181     740.0        0.0000E+00    0.0400
  182     745.0        0.0000E+00    0.0400
  183     750.0        0.0000E+00    0.0400
  184     755.0        0.0000E+00    0.0400
  185     760.0        0.0000E+00    0.0400
  186     765.0        0.0000E+00    0.0400
  187     770.0        0.0000E+00    0.0400
  188     775.0        0.0000E+00    0.0400
  189     780.0        0.0000E+00    0.0400
  190     785.0        0.0000E+00    0.0400
  191     790.0        0.0000E+00    0.0400
  192     795.0        0.0000E+00    0.0400
  193     800.0        0.0000E+00    0.0000
  194     805.0        0.0000E+00    0.0000
  195     810.0        0.0000E+00    0.0000
  196     815.0        0.0000E+00    0.0000
  197     820.0        0.0000E+00    0.0000
  198     825.0        0.0000E+00    0.0000
  199     830.0        0.0000E+00    0.0000
  200     835.0        0.0000E+00    0.0000
  201     840.0        0.0000E+00    0.0000
  202     845.0        0.0000E+00    0.0000
  203     850.0        0.0000E+00    0.0000
