 int. wave (nm)     cross-section       phi
    1     121.5        2.8000E-17    0.3000
    2     116.7        3.9503E-17    0.3000
    3     117.3        4.0260E-17    0.3000
    4     117.9        1.6380E-17    0.3000
    5     118.7        1.7440E-17    0.3000
    6     119.4        3.8960E-17    0.3000
    7     120.2        5.7960E-17    0.3000
    8     120.8        2.7840E-17    0.3000
    9     121.6        1.6540E-17    0.3000
   10     122.3        1.2808E-17    0.3000
   11     123.1        1.1544E-17    0.3000
   12     123.8        4.9932E-17    0.3000
   13     124.6        4.0140E-17    0.3000
   14     125.4        2.1780E-17    0.3000
   15     126.2        1.8160E-17    0.3000
   16     127.0        3.0800E-17    0.3000
   17     127.8        4.6960E-17    0.3000
   18     128.6        4.1280E-17    0.3000
   19     129.4        5.5440E-17    0.3000
   20     130.3        8.3430E-17    0.3000
   21     131.1        7.2650E-17    0.3000
   22     132.0        3.8000E-17    0.3000
   23     132.9        9.7399E-17    0.3000
   24     133.8        6.1920E-17    0.3000
   25     134.6        2.7760E-17    0.3000
   26     135.6        9.8640E-18    0.3000
   27     136.5        5.7800E-18    0.3000
   28     137.4        3.0000E-18    0.3000
   29     138.4        2.7480E-18    0.3000
   30     139.9        4.4580E-18    0.3000
   31     141.8        3.2160E-18    0.3000
   32     143.9        1.0940E-17    0.3000
   33     145.9        8.6230E-18    0.3000
   34     148.1        3.1600E-17    0.3000
   35     150.4        5.5681E-17    0.3000
   36     152.6        2.8574E-17    0.1920
   37     155.0        5.7600E-19    0.1200
   38     157.4        6.3000E-19    0.1200
   39     160.0        7.7600E-19    0.1200
   40     162.6        1.0198E-18    0.1200
   41     165.3        1.2990E-18    0.1200
   42     168.1        1.6940E-18    0.1200
   43     170.9        1.6760E-18    0.1200
   44     173.1        1.6050E-18    0.1200
   45     174.6        1.5000E-18    0.1200
   46     176.2        1.1280E-18    0.1200
   47     177.8        1.0792E-18    0.1200
   48     179.4        8.3220E-19    0.1200
   49     181.0        5.5200E-19    0.1200
   50     182.7        5.4410E-19    0.1200
   51     184.3        4.1500E-19    0.1200
   52     186.1        3.5150E-19    0.2100
   53     187.8        2.2480E-19    0.2100
   54     189.6        2.0640E-19    0.2100
   55     191.4        2.2140E-19    0.2100
   56     193.2        1.5580E-19    0.2100
   57     195.1        2.2385E-19    0.2100
   58     197.0        6.1800E-20    0.2100
   59     199.0        9.1500E-20    0.2100
   60     201.0        0.0000E+00    0.2100
   61     203.1        0.0000E+00    0.2100
   62     205.1        0.0000E+00    0.2100
   63     207.3        0.0000E+00    0.2100
   64     209.4        0.0000E+00    0.2100
   65     211.6        0.0000E+00    0.2100
   66     213.9        0.0000E+00    0.2100
   67     216.2        0.0000E+00    0.2100
   68     218.6        0.0000E+00    0.2100
   69     221.0        0.0000E+00    0.2100
   70     223.5        0.0000E+00    0.2100
   71     226.0        0.0000E+00    0.2100
   72     228.6        0.0000E+00    0.2100
   73     231.2        0.0000E+00    0.2100
   74     233.9        0.0000E+00    0.2100
   75     236.7        0.0000E+00    0.2100
   76     239.5        0.0000E+00    0.2100
   77     242.4        0.0000E+00    0.2100
   78     245.4        0.0000E+00    0.2100
   79     248.5        0.0000E+00    0.2100
   80     251.6        0.0000E+00    0.2100
   81     254.8        0.0000E+00    0.2100
   82     258.1        0.0000E+00    0.2100
   83     261.4        0.0000E+00    0.2100
   84     264.9        0.0000E+00    0.2100
   85     268.5        0.0000E+00    0.2100
   86     272.1        0.0000E+00    0.2100
   87     275.9        0.0000E+00    0.2100
   88     279.7        0.0000E+00    0.2100
   89     283.7        0.0000E+00    0.2100
   90     287.8        0.0000E+00    0.2100
   91     292.0        0.0000E+00    0.2100
   92     296.3        0.0000E+00    0.2100
   93     300.8        0.0000E+00    0.2100
   94     305.3        0.0000E+00    0.2100
   95     310.0        0.0000E+00    0.2100
   96     315.0        0.0000E+00    0.2100
   97     320.0        0.0000E+00    0.2100
   98     325.0        0.0000E+00    0.2100
   99     330.0        0.0000E+00    0.2100
  100     335.0        0.0000E+00    0.2100
  101     340.0        0.0000E+00    0.2100
  102     345.0        0.0000E+00    0.2100
  103     350.0        0.0000E+00    0.2100
  104     355.0        0.0000E+00    0.2100
  105     360.0        0.0000E+00    0.2100
  106     365.0        0.0000E+00    0.2100
  107     370.0        0.0000E+00    0.2100
  108     375.0        0.0000E+00    0.2100
  109     380.0        0.0000E+00    0.2100
  110     385.0        0.0000E+00    0.2100
  111     390.0        0.0000E+00    0.2100
  112     395.0        0.0000E+00    0.2100
  113     400.0        0.0000E+00    0.2100
  114     405.0        0.0000E+00    0.2100
  115     410.0        0.0000E+00    0.2100
  116     415.0        0.0000E+00    0.2100
  117     420.0        0.0000E+00    0.2100
  118     425.0        0.0000E+00    0.2100
  119     430.0        0.0000E+00    0.2100
  120     435.0        0.0000E+00    0.2100
  121     440.0        0.0000E+00    0.2100
  122     445.0        0.0000E+00    0.2100
  123     450.0        0.0000E+00    0.2100
  124     455.0        0.0000E+00    0.2100
  125     460.0        0.0000E+00    0.2100
  126     465.0        0.0000E+00    0.2100
  127     470.0        0.0000E+00    0.2100
  128     475.0        0.0000E+00    0.2100
  129     480.0        0.0000E+00    0.2100
  130     485.0        0.0000E+00    0.2100
  131     490.0        0.0000E+00    0.2100
  132     495.0        0.0000E+00    0.2100
  133     500.0        0.0000E+00    0.2100
  134     505.0        0.0000E+00    0.2100
  135     510.0        0.0000E+00    0.2100
  136     515.0        0.0000E+00    0.2100
  137     520.0        0.0000E+00    0.2100
  138     525.0        0.0000E+00    0.2100
  139     530.0        0.0000E+00    0.2100
  140     535.0        0.0000E+00    0.2100
  141     540.0        0.0000E+00    0.2100
  142     545.0        0.0000E+00    0.2100
  143     550.0        0.0000E+00    0.2100
  144     555.0        0.0000E+00    0.2100
  145     560.0        0.0000E+00    0.2100
  146     565.0        0.0000E+00    0.2100
  147     570.0        0.0000E+00    0.2100
  148     575.0        0.0000E+00    0.2100
  149     580.0        0.0000E+00    0.2100
  150     585.0        0.0000E+00    0.2100
  151     590.0        0.0000E+00    0.2100
  152     595.0        0.0000E+00    0.2100
  153     600.0        0.0000E+00    0.2100
  154     605.0        0.0000E+00    0.2100
  155     610.0        0.0000E+00    0.2100
  156     615.0        0.0000E+00    0.2100
  157     620.0        0.0000E+00    0.2100
  158     625.0        0.0000E+00    0.2100
  159     630.0        0.0000E+00    0.2100
  160     635.0        0.0000E+00    0.2100
  161     640.0        0.0000E+00    0.2100
  162     645.0        0.0000E+00    0.2100
  163     650.0        0.0000E+00    0.2100
  164     655.0        0.0000E+00    0.2100
  165     660.0        0.0000E+00    0.2100
  166     665.0        0.0000E+00    0.2100
  167     670.0        0.0000E+00    0.2100
  168     675.0        0.0000E+00    0.2100
  169     680.0        0.0000E+00    0.2100
  170     685.0        0.0000E+00    0.2100
  171     690.0        0.0000E+00    0.2100
  172     695.0        0.0000E+00    0.2100
  173     700.0        0.0000E+00    0.2100
  174     705.0        0.0000E+00    0.2100
  175     710.0        0.0000E+00    0.2100
  176     715.0        0.0000E+00    0.2100
  177     720.0        0.0000E+00    0.2100
  178     725.0        0.0000E+00    0.2100
  179     730.0        0.0000E+00    0.2100
  180     735.0        0.0000E+00    0.2100
  181     740.0        0.0000E+00    0.2100
  182     745.0        0.0000E+00    0.2100
  183     750.0        0.0000E+00    0.2100
  184     755.0        0.0000E+00    0.2100
  185     760.0        0.0000E+00    0.2100
  186     765.0        0.0000E+00    0.2100
  187     770.0        0.0000E+00    0.2100
  188     775.0        0.0000E+00    0.2100
  189     780.0        0.0000E+00    0.2100
  190     785.0        0.0000E+00    0.2100
  191     790.0        0.0000E+00    0.2100
  192     795.0        0.0000E+00    0.2100
  193     800.0        0.0000E+00    0.2100
  194     805.0        0.0000E+00    0.2100
  195     810.0        0.0000E+00    0.2100
  196     815.0        0.0000E+00    0.2100
  197     820.0        0.0000E+00    0.2100
  198     825.0        0.0000E+00    0.2100
  199     830.0        0.0000E+00    0.2100
  200     835.0        0.0000E+00    0.2100
  201     840.0        0.0000E+00    0.2100
  202     845.0        0.0000E+00    0.2100
  203     850.0        0.0000E+00    0.2100
